#Wave		#Intensity
4001.691406	4819.366211
4000.780273	4782.706055
3999.868164	4764.712891
3998.957031	4521.229492
3998.044922	4449.758789
3997.132813	4502.288086
3996.219727	4391.417969
3995.307617	4243.986816
3994.394531	4152.933105
3993.481445	4222.370117
3992.568359	4187.646973
3991.655273	4031.952637
3990.741211	4126.686035
3989.828125	4196.064941
3988.914063	4178.248535
3987.999023	3986.150879
3987.084961	4165.122070
3986.169922	4071.458252
3985.255859	4219.427734
3984.340820	4167.921875
3983.424805	4147.325684
3982.509766	4168.848633
3981.593750	4170.714355
3980.677734	4301.657227
3979.761719	4339.961914
3978.845703	4397.882813
3977.929688	4450.168457
3977.012695	4519.251465
3976.095703	4560.274414
3975.178711	4620.894043
3974.260742	4535.802246
3973.343750	4655.219727
3972.425781	4704.574707
3971.507813	4815.500000
3970.589844	4906.781738
3969.671875	4771.348145
3968.752930	4543.646973
3967.833984	4696.465332
3966.915039	4664.642090
3965.996094	4711.118164
3965.076172	4788.321289
3964.157227	4577.640137
3963.237305	4484.402344
3962.317383	4556.016602
3961.396484	4432.105469
3960.476563	4512.074707
3959.555664	4421.726563
3958.634766	4378.863281
3957.713867	4338.809570
3956.792969	4237.402344
3955.871094	4147.196777
3954.949219	4140.681641
3954.027344	3941.817627
3953.105469	3991.092773
3952.182617	4068.209961
3951.260742	4047.788330
3950.337891	3974.457275
3949.415039	3929.004639
3948.491211	3967.090088
3947.568359	3907.742676
3946.644531	3979.206787
3945.720703	4089.586914
3944.796875	3921.776367
3943.873047	3912.545898
3942.948242	4064.567139
3942.023438	3988.599365
3941.098633	4226.679688
3940.173828	4186.826172
3939.248047	4291.426758
3938.323242	4257.130371
3937.397461	4419.970703
3936.471680	4330.145508
3935.544922	4420.742188
3934.619141	4469.680176
3933.692383	4438.154297
3932.765625	4539.756836
3931.838867	4547.044922
3930.912109	4457.311035
3929.984375	4569.924316
3929.056641	4538.409668
3928.128906	4603.861816
3927.201172	4505.886719
3926.272461	4455.025391
3925.344727	4470.623535
3924.416016	4428.095215
3923.487305	4440.924805
3922.557617	4547.802246
3921.628906	4317.218750
3920.699219	4354.949219
3919.769531	4174.272949
3918.839844	4098.702637
3917.910156	3965.139893
3916.979492	3958.714111
3916.048828	4051.719482
3915.118164	3981.767090
3914.187500	3922.888672
3913.255859	3955.117432
3912.324219	3830.045654
3911.393555	3989.183838
3910.460938	3922.081787
3909.529297	3857.767090
3908.596680	3947.867432
3907.665039	3800.887939
3906.732422	3951.583740
3905.798828	3859.769531
3904.866211	3894.698730
3903.932617	4042.515869
3902.999023	3865.395752
3902.065430	4062.696777
3901.131836	4144.328613
3900.197266	4014.076904
3899.263672	4134.190918
3898.329102	4339.500000
3897.393555	4173.549805
3896.458984	4274.303711
3895.523438	4292.567383
3894.588867	4415.227539
3893.653320	4356.537598
3892.716797	4270.412109
3891.781250	4239.237793
3890.844727	4460.616699
3889.908203	4305.916016
3888.971680	4258.291504
3888.035156	4350.587402
3887.097656	4267.321289
3886.160156	4351.346680
3885.222656	4309.236328
3884.285156	4152.039063
3883.346680	4151.092285
3882.409180	4078.922607
3881.470703	4077.992676
3880.532227	4088.015381
3879.592773	3985.795654
3878.654297	4039.624268
3877.714844	3819.802979
3876.775391	3950.241699
3875.835938	3779.770508
3874.895508	3959.377197
3873.956055	3772.578613
3873.015625	3700.656494
3872.075195	3803.646973
3871.133789	3860.148438
3870.193359	3812.835938
3869.251953	3839.271973
3868.310547	3723.735107
3867.369141	3802.037109
3866.426758	3937.607178
3865.485352	3860.320068
3864.542969	3905.806396
3863.600586	4003.082520
3862.658203	4043.062256
3861.714844	3922.209961
3860.771484	4008.514648
3859.828125	4116.575195
3858.884766	4134.700684
3857.941406	3975.812500
3856.997070	4162.758789
3856.052734	4137.310059
3855.108398	4215.281738
3854.164063	4154.463379
3853.218750	4088.232422
3852.274414	4236.866211
3851.329102	4235.896973
3850.383789	4003.882813
3849.437500	4155.150391
3848.492188	3966.730957
3847.545898	4022.866211
3846.599609	4030.092773
3845.652344	3966.723877
3844.706055	3938.671631
3843.758789	3935.056396
3842.811523	3969.427490
3841.864258	3879.003418
3840.916992	3859.131592
3839.968750	3730.814697
3839.020508	3719.117432
3838.072266	3853.770996
3837.124023	3706.576172
3836.174805	3586.537354
3835.226563	3666.963135
3834.277344	3755.474609
3833.327148	3819.582275
3832.377930	3721.277344
3831.427734	3687.955322
3830.478516	3746.623291
3829.527344	3710.605713
3828.577148	3855.766113
3827.626953	3817.036133
3826.675781	3883.727539
3825.724609	3804.477783
3824.773438	3911.662354
3823.821289	3829.741211
3822.870117	3993.574219
3821.917969	3873.877197
3820.965820	3926.967529
3820.013672	3947.653076
3819.060547	3922.468018
3818.107422	4180.488770
3817.154297	3912.578613
3816.201172	3992.556152
3815.248047	3999.725342
3814.293945	4085.034912
3813.339844	3892.823486
3812.385742	4050.838867
3811.431641	3934.120117
3810.476563	3968.214355
3809.521484	3816.577881
3808.566406	3891.046631
3807.611328	3938.577881
3806.656250	3897.328125
3805.700195	3880.298340
3804.744141	3847.145508
3803.788086	3811.319824
3802.832031	3638.463379
3801.875000	3685.985596
3800.917969	3840.923828
3799.960938	3611.786621
3799.003906	3619.010498
3798.046875	3704.069824
3797.088867	3764.938477
3796.130859	3565.539795
3795.172852	3642.505127
3794.214844	3735.524658
3793.255859	3616.700439
3792.296875	3650.713623
3791.337891	3757.065186
3790.378906	3681.183838
3789.418945	3795.514404
3788.459961	3810.708496
3787.500000	3844.636475
3786.539063	3851.781738
3785.579102	3783.992676
3784.618164	3753.691162
3783.658203	3849.121582
3782.697266	3773.356445
3781.735352	3788.529053
3780.774414	3910.614990
3779.812500	3821.525146
3778.850586	3828.659912
3777.888672	3758.327637
3776.925781	3773.484863
3775.963867	3812.664063
3775.000977	3729.036621
3774.038086	3602.748047
3773.074219	3780.679443
3772.111328	3534.400391
3771.147461	3522.917969
3770.183594	3570.098145
3769.218750	3531.956055
3768.254883	3509.821289
3767.290039	3413.093506
3766.325195	3401.650879
3765.360352	3456.792725
3764.395508	3258.966064
3763.429688	3276.847656
3762.463867	3148.347900
3761.498047	3248.728271
3760.532227	3146.894775
3759.565430	3045.107910
3758.599609	3235.843506
3757.632813	3134.082764
3756.665039	3085.521484
3755.698242	3039.639648
3754.730469	3054.875977
3753.762695	3062.137939
3752.794922	2979.119629
3751.827148	3042.141357
3750.858398	3067.978027
3749.889648	2958.481934
3748.920898	3111.656738
3747.952148	3041.982422
3746.982422	3012.112793
3746.013672	3019.369141
3745.043945	2994.818604
3744.073242	2922.585205
3743.103516	2927.207520
3742.132813	3021.874512
3741.162109	2992.049561
3740.191406	2962.238037
3739.220703	2868.921631
3738.249023	2881.488037
3737.278320	2804.105225
3736.305664	2824.614502
3735.333984	2593.919189
3734.362305	2519.299561
3733.389648	2487.001221
3732.416992	2457.360107
3731.444336	2374.898193
3730.470703	2281.909912
3729.498047	2204.807373
3728.524414	2032.704834
3727.550781	1924.024170
3726.576172	1931.494507
3725.602539	1817.611328
3724.627930	1774.991333
3723.653320	1603.186768
3722.678711	1531.637695
3721.703125	1452.214844
3720.727539	1354.383667
3719.751953	1375.144775
3718.776367	1272.109131
3717.800781	1213.884888
3716.824219	1139.892212
3715.847656	1079.093384
3714.871094	1031.479248
3713.894531	975.995056
3712.916992	925.796753
3711.939453	959.765381
3710.961914	830.727417
3709.984375	806.880249
3709.005859	814.575989
3708.028320	761.845886
3707.049805	774.801331
3706.070313	800.879883
3705.091797	737.688538
3704.112305	719.144958
3703.132813	724.226013
3702.153320	674.213318
3701.173828	658.320007
3700.193359	694.877686
3699.212891	707.824158
3698.232422	668.345276
3697.251953	707.495300
3696.270508	707.330994
3695.289063	717.643188
3694.307617	686.054077
3693.326172	719.927612
3692.344727	777.341064
3691.362305	811.177551
3690.379883	816.221130
3689.397461	831.724304
3688.414063	902.132629
3687.431641	917.608459
3686.448242	959.213623
3685.464844	1037.382202
3684.480469	1105.064453
3683.497070	1193.609863
3682.512695	1240.334351
3681.528320	1297.479370
3680.543945	1357.207886
3679.558594	1448.221313
3678.573242	1442.666626
3677.587891	1421.465332
3676.602539	1468.070923
3675.617188	1551.152466
3674.630859	1584.674194
3673.644531	1425.353516
3672.658203	1482.335083
3671.670898	1429.898804
3670.684570	1486.852539
3669.697266	1483.902832
3668.709961	1327.393188
3667.721680	1314.073364
3666.734375	1251.330688
3665.746094	1199.020874
3664.757813	1128.533081
3663.768555	1180.264038
3662.780273	1016.245972
3661.791016	1036.796997
3660.801758	927.444153
3659.812500	875.282349
3658.822266	794.581421
3657.833008	838.529236
3656.842773	809.783569
3655.852539	703.205627
3654.861328	721.201355
3653.870117	687.315674
3652.879883	661.224915
3651.887695	648.108459
3650.896484	699.793762
3649.904297	725.542664
3648.913086	694.285889
3647.919922	642.323486
3646.927734	696.551147
3645.935547	742.987000
3644.942383	747.989868
3643.949219	789.216736
3642.955078	833.011230
3641.961914	812.125549
3640.967773	822.278931
3639.973633	928.079163
3638.979492	902.016541
3637.985352	989.660767
3636.990234	997.179565
3635.995117	1079.594849
3635.000000	1146.478638
3634.003906	1151.373779
3633.008789	1145.942627
3632.012695	1145.674683
3631.016602	1258.915527
3630.019531	1191.563477
3629.023438	1237.698486
3628.026367	1260.610352
3627.029297	1306.707397
3626.031250	1200.755737
3625.034180	1257.149536
3624.036133	1158.985474
3623.038086	1132.965088
3622.040039	1155.868774
3621.041016	1068.091797
3620.041992	1047.256836
3619.042969	1026.431641
3618.043945	974.753113
3617.044922	1000.237854
3616.044922	889.463379
3615.044922	860.983948
3614.044922	817.100769
3613.043945	788.651428
3612.043945	801.308167
3611.042969	849.906555
3610.041992	764.993347
3609.040039	744.282166
3608.039063	759.503052
3607.037109	702.888672
3606.035156	756.582275
3605.032227	735.892212
3604.030273	733.156189
3603.027344	843.188171
3602.024414	842.990417
3601.020508	837.669312
3600.017578	870.766846
3599.013672	939.695496
3598.009766	954.834290
3597.005859	985.321533
3596.000977	1013.235718
3594.996094	1079.507935
3593.991211	1115.059204
3592.986328	1102.013062
3591.981445	1145.210938
3590.975586	1231.834961
3589.969727	1108.902222
3588.963867	1146.958862
3587.957031	1215.644165
3586.950195	1215.358643
3585.943359	1138.492798
3584.936523	1135.673340
3583.929688	1176.230103
3582.921875	1181.055420
3581.914063	1086.417603
3580.906250	1183.050049
3579.898438	1085.906982
3578.889648	1027.036743
3577.880859	1042.082520
3576.872070	1021.459290
3575.863281	965.192139
3574.853516	936.958252
3573.843750	896.010132
3572.833984	928.882874
3571.824219	887.955750
3570.813477	841.960510
3569.802734	857.020935
3568.791992	839.021851
3567.781250	810.863586
3566.769531	851.333435
3565.758789	820.644653
3564.746094	833.151978
3563.734375	845.653320
3562.722656	888.615540
3561.709961	931.557434
3560.697266	865.357727
3559.684570	913.358948
3558.670898	1062.797974
3557.657227	1001.685608
3556.643555	998.914307
3555.629883	1079.789917
3554.615234	1077.001343
3553.601563	1200.890259
3552.586914	1185.409546
3551.572266	1187.662476
3550.556641	1222.826782
3549.541016	1255.443237
3548.525391	1239.963989
3547.509766	1186.542847
3546.494141	1249.496582
3545.477539	1251.730591
3544.460938	1188.231567
3543.444336	1152.565430
3542.426758	1207.886597
3541.410156	1194.969849
3540.392578	1151.749756
3539.375000	1111.075195
3538.356445	1158.779907
3537.337891	1024.735474
3536.320313	1019.446777
3535.300781	1031.820068
3534.282227	1011.398865
3533.262695	1028.811157
3532.243164	975.627197
3531.223633	930.029480
3530.204102	854.215515
3529.183594	977.455200
3528.163086	944.482239
3527.142578	951.813110
3526.122070	923.896484
3525.100586	958.913757
3524.079102	951.138428
3523.057617	953.429199
3522.036133	1006.019836
3521.013672	1038.469849
3519.991211	1063.362915
3518.968750	1065.624756
3517.946289	1103.062744
3516.922852	1165.603760
3515.899414	1137.701782
3514.875977	1162.541504
3513.852539	1091.978149
3512.828125	1342.689819
3511.803711	1231.971436
3510.779297	1226.662842
3509.754883	1231.388306
3508.729492	1253.662720
3507.705078	1240.832275
3506.678711	1283.142822
3505.653320	1265.300171
3504.627930	1272.515381
3503.601563	1194.578857
3502.575195	1259.393799
3501.547852	1184.000244
3500.521484	1186.222290
3499.494141	1158.419434
3498.466797	1073.097534
3497.438477	1177.876831
3496.411133	1132.593872
3495.382813	1177.318481
3494.354492	1104.567749
3493.326172	1099.309082
3492.296875	1086.559204
3491.267578	1103.782227
3490.238281	1081.050659
3489.208984	1110.746948
3488.178711	1135.438110
3487.148438	1067.807129
3486.118164	1107.462280
3485.087891	1087.250000
3484.056641	1116.909180
3483.026367	1094.211548
3481.994141	1218.547729
3480.962891	1280.541504
3479.930664	1242.876587
3478.899414	1284.913940
3477.867188	1277.140137
3476.833984	1274.347900
3475.801758	1343.719604
3474.768555	1311.059326
3473.735352	1402.773804
3472.701172	1412.386841
3471.667969	1414.537354
3470.633789	1399.288696
3469.599609	1364.168579
3468.564453	1341.486328
3467.530273	1467.833252
3466.495117	1355.746948
3465.459961	1338.047363
3464.424805	1377.439209
3463.388672	1292.748047
3462.352539	1423.917236
3461.316406	1284.692871
3460.280273	1291.825806
3459.243164	1311.349854
3458.206055	1320.951294
3457.168945	1300.814941
3456.131836	1268.302490
3455.093750	1282.859985
3454.055664	1233.035156
3453.017578	1242.643188
3451.978516	1239.872559
3450.940430	1217.309570
3449.901367	1283.807373
3448.862305	1305.758911
3447.822266	1288.140869
3446.783203	1312.552490
3445.743164	1307.297363
3444.703125	1341.575317
3443.662109	1469.700073
3442.622070	1345.875000
3441.581055	1488.750977
3440.539063	1468.649536
3439.498047	1396.735352
3438.456055	1482.752319
3437.414063	1479.932251
3436.372070	1533.830688
3435.330078	1533.464966
3434.287109	1503.521729
3433.244141	1488.377930
3432.201172	1483.095703
3431.157227	1453.185547
3430.114258	1573.498413
3429.070313	1422.950073
3428.025391	1489.064575
3426.981445	1432.113647
3425.936523	1503.114502
3424.891602	1419.132568
3423.846680	1431.088379
3422.800781	1408.621704
3421.755859	1413.200928
3420.709961	1486.578003
3419.663086	1380.590698
3418.617188	1453.940308
3417.570313	1456.048340
3416.523438	1433.607300
3415.476563	1425.902100
3414.428711	1359.313232
3413.380859	1454.657349
3412.333008	1444.499756
3411.285156	1414.732056
3410.236328	1478.127319
3409.187500	1470.421875
3408.138672	1489.671265
3407.089844	1535.856079
3406.040039	1523.244141
3404.990234	1574.295288
3403.940430	1542.097778
3402.890625	1568.647949
3401.839844	1612.311523
3400.789063	1572.789429
3399.738281	1552.849609
3398.687500	1594.040405
3397.635742	1593.658813
3396.583984	1522.410767
3395.532227	1583.123657
3394.479492	1565.646973
3393.427734	1548.178711
3392.375000	1547.807983
3391.322266	1615.778320
3390.268555	1527.545288
3389.214844	1558.893921
3388.161133	1497.545532
3387.107422	1572.777588
3386.053711	1506.579346
3384.999023	1557.400513
3383.944336	1500.984009
3382.888672	1551.781860
3381.833984	1539.232422
3380.778320	1551.037964
3379.722656	1516.585449
3378.666992	1557.595459
3377.610352	1593.719238
3376.553711	1542.252930
3375.497070	1646.458740
3374.440430	1612.024048
3373.382813	1560.589966
3372.325195	1647.704224
3371.267578	1627.871582
3370.209961	1600.761108
3369.151367	1738.800903
3368.092773	1709.248657
3367.034180	1626.309204
3365.974609	1674.453613
3364.916016	1686.182373
3363.856445	1719.735596
3362.796875	1675.672607
3361.736328	1646.177124
3360.675781	1730.615845
3359.615234	1669.618896
3358.554688	1722.516357
3357.494141	1702.725830
3356.432617	1646.622070
3355.371094	1653.489136
3354.308594	1645.830566
3353.247070	1778.521606
3352.184570	1657.135254
3351.122070	1709.945923
3350.058594	1685.354614
3348.996094	1648.687866
3347.932617	1665.209229
3346.869141	1766.291992
3345.804688	1654.745483
3344.741211	1719.555176
3343.676758	1711.897827
3342.612305	1677.690674
3341.546875	1670.046875
3340.481445	1669.644897
3339.416016	1693.364990
3338.350586	1873.828857
3337.285156	1690.138672
3336.218750	1665.627197
3335.152344	1831.507690
3334.085938	1857.568848
3333.018555	1792.086060
3331.951172	1743.491577
3330.883789	1769.554688
3329.816406	1730.616699
3328.748047	1838.487549
3327.679688	1813.986328
3326.611328	1731.771118
3325.542969	1858.800537
3324.473633	1911.242188
3323.404297	1785.799438
3322.334961	1828.621338
3321.264648	1885.836548
3320.195313	1755.686768
3319.125000	1863.316406
3318.053711	1860.466309
3316.983398	1783.216797
3315.912109	1787.585449
3314.840820	1887.906494
3313.769531	1813.104004
3312.697266	1805.473267
3311.625000	1872.157104
3310.552734	1823.774170
3309.480469	1808.958008
3308.407227	1806.125854
3307.333984	1824.848267
3306.260742	1798.071045
3305.187500	1862.265503
3304.113281	1859.422607
3303.039063	1959.458496
3301.964844	1875.267700
3300.889648	1867.640625
3299.814453	1986.727661
3298.739258	1897.810547
3297.664063	1940.364868
3296.588867	1968.564209
3295.512695	1958.534424
3294.436523	1915.079102
3293.359375	1983.847778
3292.283203	1906.992920
3291.206055	1851.650269
3290.128906	1934.697388
3289.050781	2012.934204
3287.972656	2017.216064
3286.894531	2009.576416
3285.816406	2009.090088
3284.738281	1977.629028
3283.659180	2027.174683
3282.580078	1990.961060
3281.500977	2014.288574
3280.420898	1980.475586
3279.340820	1863.385742
3278.260742	1958.103516
3277.180664	1990.930420
3276.099609	1980.935913
3275.018555	2011.363525
3273.937500	1963.337891
3272.856445	2005.636475
3271.774414	2017.029297
3270.692383	2040.292480
3269.610352	1935.314697
3268.527344	2013.189087
3267.444336	2000.833740
3266.361328	2012.213135
3265.278320	2040.192993
3264.194336	2006.493896
3263.110352	2046.317139
3262.026367	1960.479492
3260.942383	1983.704102
3259.857422	1987.961792
3258.772461	1987.479492
3257.687500	2013.048462
3256.602539	2003.089111
3255.516602	2033.375854
3254.430664	2089.679932
3253.343750	1956.677002
3252.257813	1982.221558
3251.170898	2024.307495
3250.083984	2028.544556
3248.997070	2082.416992
3247.909180	1989.749390
3246.821289	2005.803955
3245.733398	2092.709717
3244.644531	2127.622314
3243.556641	1994.899048
3242.467773	2195.035889
3241.377930	2152.028076
3240.289063	2083.091064
3239.199219	2049.565186
3238.109375	2129.237549
3237.019531	2133.434570
3235.928711	2125.845459
3234.837891	2097.053711
3233.747070	2030.584961
3232.655273	2048.931885
3231.564453	2024.888184
3230.472656	2062.058838
3229.379883	2016.842896
3228.288086	2009.293701
3227.195313	2185.221924
3226.102539	2041.239014
3225.009766	2083.061768
3223.916016	2051.997803
3222.822266	2067.947998
3221.728516	2025.155762
3220.634766	1998.825806
3219.540039	1951.374512
3218.445313	2124.625488
3217.350586	2053.695557
3216.254883	2149.402100
3215.159180	2104.305664
3214.063477	2061.576416
3212.967773	2096.245850
3211.871094	2116.833008
3210.774414	2090.536865
3209.677734	2026.764038
3208.581055	2112.942627
3207.483398	2107.743652
3206.385742	2058.061035
3205.288086	2029.469482
3204.189453	2080.459473
3203.090820	2012.102051
3201.992188	1974.185791
3200.893555	2057.890625
3199.793945	2115.836914
3198.694336	2014.813721
3197.594727	2079.752441
3196.495117	2041.865112
3195.394531	1973.632446
3194.293945	2075.894531
3193.193359	2054.376953
3192.091797	1948.847656
3190.990234	1960.038696
3189.888672	1966.558350
3188.787109	1963.745728
3187.684570	2021.557739
3186.582031	2028.057129
3185.479492	1901.713013
3184.375977	1808.049805
3183.273438	1826.243042
3182.169922	1702.369141
3181.065430	1615.807617
3179.961914	1657.310913
3178.857422	1410.231445
3177.752930	1391.274292
3176.647461	1244.397461
3175.542969	1211.537476
3174.437500	1074.075562
3173.331055	992.463379
3172.225586	901.596191
3171.119141	834.004761
3170.012695	840.768372
3168.906250	743.038757
3167.798828	663.928345
3166.691406	649.840637
3165.583984	647.361267
3164.475586	626.325256
3163.368164	626.171875
3162.258789	612.107056
3161.150391	593.412964
3160.041992	588.632690
3158.932617	590.805359
3157.823242	579.079041
3156.712891	544.200928
3155.602539	551.013123
3154.492188	578.653442
3153.381836	606.280151
3152.271484	573.742859
3151.160156	543.534363
3150.048828	603.522034
3148.936523	575.632690
3147.825195	614.782166
3146.712891	582.282349
3145.600586	579.829468
3144.487305	605.091797
3143.374023	616.488098
3142.260742	609.411682
3141.147461	602.338684
3140.033203	616.034363
3138.918945	574.362915
3137.804688	627.262512
3136.690430	585.608704
3135.575195	587.769897
3134.459961	589.929993
3133.344727	619.735168
3132.228516	575.820557
3131.112305	589.495422
3129.996094	584.746338
3128.879883	570.793152
3127.762695	600.566162
3126.645508	616.521729
3125.528320	625.569763
3124.410156	597.824158
3123.291992	609.170959
3122.173828	583.741089
3121.055664	689.288452
3119.936523	604.127625
3118.817383	633.833557
3117.698242	571.687439
3116.578125	594.500549
3115.458984	615.007507
3114.338867	640.092834
3113.217773	584.887146
3112.097656	612.260559
3110.976563	657.960815
3109.854492	630.295044
3108.733398	648.471252
3107.611328	634.566467
3106.489258	634.410278
3105.367188	643.412964
3104.244141	613.495361
3103.121094	668.270630
3101.998047	578.872681
3100.875000	601.604797
3099.750977	640.333984
3098.626953	608.167419
3097.501953	612.589111
3096.377930	633.005066
3095.252930	600.863892
3094.127930	662.386230
3093.001953	607.418274
3091.876953	614.117432
3090.750000	684.720459
3089.624023	638.914795
3088.498047	627.350830
3087.371094	640.880371
3086.244141	633.881836
3085.116211	681.596802
3083.988281	685.986633
3082.860352	637.969666
3081.732422	660.591187
3080.603516	642.209473
3079.475586	714.907776
3078.345703	687.416687
3077.216797	694.073914
3076.086914	662.051270
3074.957031	677.809509
3073.827148	679.916016
3072.696289	713.849182
3071.565430	670.488770
3070.434570	740.763855
3069.303711	699.689880
3068.171875	733.584351
3067.040039	735.673645
3065.908203	665.120667
3064.775391	680.842590
3063.642578	714.708008
3062.509766	687.311035
3061.376953	698.480042
3060.243164	680.169434
3059.109375	714.001282
3057.974609	711.558594
3056.840820	724.975830
3055.706055	745.181396
3054.571289	754.054688
3053.435547	713.118469
3052.300781	731.048462
3051.164063	674.298767
3050.028320	710.326904
3048.892578	737.290527
3047.755859	734.846924
3046.618164	725.622925
3045.481445	729.963135
3044.343750	723.004150
3043.206055	817.695862
3042.068359	724.904297
3040.929688	724.724670
3039.791016	767.430908
3038.652344	792.063232
3037.512695	771.562683
3036.374023	796.181580
3035.234375	789.219482
3034.093750	764.225952
3032.954102	806.858521
3031.813477	811.164917
3030.671875	718.604004
3029.531250	824.275330
3028.389648	785.794373
3027.248047	812.611389
3026.105469	857.418640
3024.963867	834.707031
3023.821289	872.738464
3022.677734	843.287842
3021.535156	809.355408
3020.391602	842.869263
3019.248047	860.636719
3018.103516	846.943848
3016.959961	875.931213
3015.815430	871.222839
3014.669922	918.148560
3013.525391	913.431824
3012.379883	917.692383
3011.234375	937.653076
3010.087891	948.633240
3008.941406	908.040161
3007.794922	963.852417
3006.648438	941.203247
3005.500977	916.324829
3004.353516	963.133728
3003.206055	994.244324
3002.058594	1011.906921
3000.910156	1051.942383
2999.761719	1083.007446
2998.612305	993.255493
2997.463867	1037.738525
2996.314453	1091.143066
2995.164063	1095.342285
2994.014648	1074.956177
2992.864258	1186.402710
2991.713867	1190.574829
2990.562500	1134.449219
2989.412109	1254.727783
2988.260742	1265.575562
2987.108398	1280.880981
2985.957031	1262.714355
2984.804688	1336.002686
2983.652344	1320.061035
2982.499023	1386.610474
2981.345703	1363.977661
2980.192383	1394.832153
2979.039063	1454.630005
2977.884766	1465.402710
2976.730469	1616.439453
2975.576172	1591.551025
2974.420898	1646.789063
2973.265625	1737.596680
2972.110352	1683.780518
2970.955078	1734.506348
2969.798828	1820.777344
2968.642578	1866.998047
2967.486328	1828.757202
2966.329102	1881.617065
2965.171875	1870.042725
2964.014648	1942.849121
2962.856445	1964.562622
2961.698242	1915.247803
2960.540039	2003.519043
2959.381836	1983.055176
2958.222656	1995.865723
2957.063477	2017.538086
2955.904297	2043.632324
2954.744141	2023.178223
2953.583984	2035.965210
2952.423828	2212.645264
2951.263672	2136.805908
2950.102539	2224.822021
2948.941406	2272.956543
2947.779297	2314.428467
2946.618164	2355.879883
2945.456055	2359.713867
2944.293945	2314.904053
2943.130859	2413.794678
2941.967773	2406.561279
2940.804688	2498.751221
2939.640625	2478.247070
2938.477539	2475.418945
2937.313477	2549.860352
2936.148438	2714.756104
2934.984375	2669.945557
2933.819336	2700.161377
2932.653320	2712.718262
2931.488281	2815.669922
2930.322266	2832.599609
2929.156250	2818.667480
2927.989258	2910.498291
2926.823242	3024.309814
2925.656250	3049.978271
2924.488281	3102.052490
2923.321289	3046.249023
2922.153320	3133.505615
2920.984375	3194.318848
2919.816406	3318.883545
2918.647461	3379.619141
2917.478516	3464.505371
2916.308594	3474.625488
2915.139648	3656.120850
2913.969727	3602.484619
2912.798828	3709.189453
2911.628906	3833.404541
2910.458008	3845.613037
2909.286133	4004.841797
2908.115234	3981.898193
2906.943359	4024.765625
2905.771484	4146.551270
2904.598633	4266.083496
2903.426758	4142.278320
2902.253906	4329.675781
2901.080078	4247.537109
2899.907227	4347.211914
2898.733398	4396.478516
2897.558594	4434.774902
2896.384766	4453.356445
2895.209961	4504.745605
2894.035156	4602.041504
2892.859375	4603.072266
2891.683594	4505.723145
2890.507813	4522.076172
2889.332031	4510.014160
2888.155273	4677.089355
2886.978516	4337.395996
2885.801758	4428.009766
2884.624023	4350.495117
2883.447266	4321.030762
2882.268555	4245.762695
2881.090820	4227.245117
2879.912109	4051.726074
2878.733398	4063.787598
2877.553711	4112.895508
2876.375000	4037.773193
2875.195313	3938.724365
2874.014648	3889.818115
2872.834961	3860.532715
2871.654297	3757.248535
2870.473633	3658.368896
2869.291992	3696.611084
2868.110352	3495.561035
2866.928711	3564.269775
2865.747070	3352.482910
2864.564453	3388.588867
2863.381836	3220.412598
2862.198242	3223.946045
2861.015625	3168.835449
2859.832031	3018.211914
2858.647461	3043.500977
2857.463867	2955.922363
2856.279297	2848.860352
2855.094727	2837.295898
2853.909180	2955.855469
2852.723633	2794.671143
2851.538086	2774.458252
2850.352539	2663.241455
2849.166016	2768.725830
2847.979492	2755.031738
2846.792969	2652.564453
2845.605469	2751.476318
2844.417969	2726.975098
2843.230469	2540.206787
2842.041992	2600.134277
2840.853516	2499.996826
2839.665039	2616.117920
2838.476563	2537.642090
2837.287109	2441.917480
2836.097656	2456.423828
2834.907227	2514.120361
2833.716797	2448.704590
2832.526367	2467.515137
2831.335938	2451.783691
2830.144531	2468.425781
2828.953125	2353.471680
2827.761719	2389.539307
2826.570313	2427.744629
2825.377930	2390.486572
2824.184570	2361.867188
2822.992188	2458.219971
2821.798828	2207.745850
2820.605469	2301.934814
2819.412109	2256.143555
2818.217773	2399.774414
2817.023438	2384.104980
2815.828125	2346.931641
2814.633789	2357.090820
2813.438477	2300.591797
2812.242188	2332.252441
2811.046875	2316.618896
2809.850586	2273.063232
2808.654297	2261.748047
2807.457031	2235.406738
2806.259766	2365.796631
2805.062500	2311.540283
2803.865234	2220.833740
2802.666992	2246.013428
2801.468750	2281.903076
2800.269531	2253.451416
2799.071289	2179.999268
2797.872070	2265.167236
2796.671875	2232.455811
2795.472656	2264.018555
2794.272461	2194.920166
2793.071289	2183.659180
2791.871094	2176.684326
2790.669922	2242.464600
2789.468750	2169.162354
2788.266602	2209.246826
2787.064453	2227.929199
2785.862305	2199.575195
2784.660156	2152.001953
2783.457031	2196.322021
2782.253906	2208.580322
2781.049805	2156.769531
2779.846680	2203.188965
2778.642578	2245.316162
2777.437500	2212.739014
2776.233398	2229.242920
2775.028320	2211.614746
2773.823242	2240.903076
2772.617188	2253.123535
2771.411133	2241.895508
2770.205078	2190.192627
2768.998047	2223.715820
2767.791016	2229.538818
2766.583984	2243.874512
2765.376953	2256.073975
2764.168945	2221.455078
2762.960938	2348.527344
2761.751953	2190.550537
2760.543945	2221.886475
2759.334961	2276.588379
2758.125000	2295.135254
2756.916016	2347.665771
2755.706055	2242.990234
2754.495117	2327.359375
2753.285156	2311.906006
2752.074219	2413.193848
2750.863281	2404.091797
2749.651367	2424.692871
2748.439453	2451.645752
2747.227539	2510.388672
2746.014648	2384.685547
2744.801758	2494.275391
2743.588867	2504.233154
2742.375977	2450.642334
2741.162109	2596.129395
2739.948242	2510.786865
2738.734375	2465.700684
2737.519531	2564.521484
2736.304688	2491.943848
2735.088867	2520.916504
2733.874023	2556.217041
2732.658203	2614.750977
2731.441406	2633.103271
2730.225586	2604.966309
2729.008789	2532.488037
2727.791016	2612.083496
2726.574219	2607.194824
2725.356445	2671.956299
2724.138672	2565.773682
2722.919922	2527.148193
2721.701172	2690.999756
2720.482422	2608.085205
2719.263672	2561.046387
2718.043945	2678.402100
2716.824219	2557.631592
2715.603516	2550.659424
2714.382813	2691.089844
2713.162109	2627.247314
2711.941406	2693.923828
2710.719727	2619.592285
2709.498047	2543.194824
2708.276367	2590.914063
2707.053711	2634.403564
2705.831055	2658.953125
2704.608398	2630.955078
2703.384766	2594.567383
2702.161133	2604.405518
2700.937500	2610.038574
2699.712891	2661.852051
2698.488281	2583.518555
2697.263672	2517.813965
2696.038086	2653.516113
2694.812500	2627.671631
2693.586914	2643.771729
2692.360352	2630.518555
2691.134766	2669.659424
2689.907227	2557.943115
2688.680664	2548.910156
2687.453125	2686.453857
2686.225586	2692.045654
2684.997070	2611.829102
2683.769531	2657.189941
2682.540039	2721.353027
2681.311523	2624.460205
2680.082031	2602.880859
2678.852539	2708.810303
2677.623047	2647.517578
2676.392578	2671.907471
2675.162109	2667.045410
2673.930664	2635.041504
2672.700195	2671.939697
2671.468750	2642.037598
2670.236328	2768.629150
2669.004883	2694.914063
2667.772461	2683.796143
2666.539063	2645.581299
2665.306641	2742.861572
2664.073242	2723.404297
2662.838867	2760.202148
2661.605469	2759.493408
2660.371094	2798.344727
2659.136719	2787.218262
2657.901367	2788.583496
2656.666016	2808.672119
2655.430664	2735.151855
2654.194336	2659.589844
2652.958008	2789.876709
2651.721680	2818.256836
2650.485352	2823.766113
2649.248047	2758.644043
2648.009766	2822.314453
2646.772461	2869.342041
2645.534180	2847.847412
2644.295898	2786.935547
2643.056641	2813.188721
2641.818359	2853.947021
2640.578125	2782.711914
2639.338867	2887.720215
2638.098633	2932.571777
2636.858398	2857.226807
2635.617188	2924.848389
2634.376953	2895.103027
2633.135742	2935.764893
2631.893555	2850.146484
2630.651367	3029.440674
2629.409180	2979.010498
2628.166992	3023.744141
2626.923828	2925.783936
2625.680664	2902.291504
2624.436523	2858.144531
2623.193359	3010.299072
2621.949219	2957.884277
2620.704102	2975.707275
2619.459961	2882.037842
2618.213867	3015.452637
2616.968750	2961.026123
2615.722656	3007.709229
2614.476563	2926.501221
2613.230469	3092.755371
2611.983398	3019.812012
2610.736328	3089.099365
2609.489258	3022.374756
2608.241211	3017.475342
2606.993164	3039.347656
2605.745117	3079.736328
2604.496094	3048.069580
2603.247070	3039.052490
2601.998047	3089.694336
2600.748047	3043.653076
2599.498047	3135.386719
2598.248047	3089.356934
2596.997070	3098.833740
2595.746094	3098.033203
2594.495117	3208.141602
2593.243164	3246.326172
2591.991211	3220.853760
2590.739258	3252.857666
2589.486328	3184.309326
2588.233398	3228.613037
2586.980469	3133.446777
2585.726563	3173.639893
2584.472656	3279.399658
2583.218750	3215.029541
2581.963867	3234.683838
2580.708984	3254.327393
2579.454102	3296.483154
2578.198242	3307.912109
2576.942383	3206.780273
2575.686523	3187.537109
2574.429688	3368.751465
2573.172852	3279.950684
2571.916016	3221.860352
2570.658203	3466.281982
2569.400391	3444.951904
2568.142578	3425.675049
2566.883789	3441.125488
2565.625000	3415.733887
2564.366211	3496.495361
2563.107422	3446.614258
2561.847656	3506.924072
2560.586914	3469.303223
2559.327148	3490.833496
2558.066406	3520.506104
2556.804688	3584.809082
2555.543945	3571.654785
2554.282227	3440.365479
2553.019531	3563.693604
2551.757813	3542.410645
2550.495117	3478.396240
2549.231445	3542.607910
2547.968750	3521.345947
2546.705078	3536.702148
2545.440430	3550.017090
2544.176758	3421.035645
2542.912109	3481.112793
2541.646484	3565.538086
2540.381836	3586.954834
2539.116211	3651.002441
2537.849609	3631.783691
2536.583984	3707.962891
2535.317383	3577.143066
2534.049805	3493.046143
2532.782227	3638.151367
2531.514648	3596.657471
2530.247070	3620.045654
2528.978516	3661.658691
2527.709961	3680.965332
2526.441406	3698.236328
2525.171875	3624.382324
2523.902344	3744.895996
2522.632813	3703.447266
2521.362305	3746.994873
2520.091797	3707.589111
2518.820313	3694.491699
2517.549805	3788.547363
2516.278320	3791.603760
2515.005859	3709.793701
2513.733398	3856.292480
2512.460938	3798.741943
2511.188477	3767.467773
2509.915039	3808.875000
2508.641602	3819.990967
2507.367188	3827.066162
2506.093750	3815.984863
2504.819336	3877.498535
2503.543945	3918.821533
2502.268555	3879.509277
2500.993164	3862.379883
2499.716797	3865.402100
2498.441406	3918.765869
2497.164063	3863.387451
2495.887695	4021.383789
2494.610352	3915.702148
2493.333008	3910.657715
2492.054688	4070.528564
2490.776367	4049.360840
2489.498047	3985.991943
2488.219727	4087.439697
2486.940430	4014.048096
2485.660156	3898.515625
2484.380859	3887.458496
2483.100586	3980.794434
2481.820313	4114.220215
2480.539063	4050.947510
2479.257813	4057.913330
2477.976563	4052.843018
2476.694336	4075.842773
2475.412109	4060.748047
2474.129883	4203.960449
2472.846680	4038.594238
2471.563477	4141.682129
2470.279297	4142.602051
2468.996094	4175.548340
2467.711914	4284.521973
2466.426758	4145.356934
2465.142578	4370.288086
2463.856445	4239.170898
2462.571289	4330.020508
2461.285156	4250.944336
2459.999023	4219.861816
2458.712891	4208.770508
2457.425781	4365.432129
2456.138672	4198.582520
2454.850586	4315.245117
2453.562500	4268.221191
2452.274414	4289.047852
2450.985352	4273.964355
2449.697266	4356.587891
2448.407227	4367.407227
2447.118164	4475.868652
2445.828125	4424.889160
2444.538086	4389.870117
2443.247070	4448.458008
2441.956055	4586.643555
2440.665039	4406.323242
2439.373047	4496.694336
2438.081055	4529.331543
2436.789063	4508.258301
2435.496094	4493.159668
2434.203125	4442.291992
2432.910156	4610.028809
2431.616211	4551.209961
2430.322266	4599.667480
2429.027344	4580.591309
2427.732422	4503.959961
2426.437500	4490.871582
2425.142578	4652.377930
2423.846680	4621.405273
2422.550781	4598.380859
2421.253906	4605.103516
2419.957031	4582.093750
2418.660156	4660.145020
2417.363281	4650.998535
2416.065430	4732.950195
2414.766602	4787.141602
2413.468750	4748.278320
2412.169922	4798.478516
2410.871094	4769.522461
2409.571289	4695.094238
2408.271484	4794.697266
2406.970703	5016.801758
2405.670898	4938.413086
2404.370117	4879.821289
2403.068359	4963.468750
2401.767578	4853.560547
2400.464844	4935.195801
2399.163086	4959.554199
2397.860352	4889.193359
2396.557617	4801.116211
2395.253906	5008.885742
2393.951172	4989.824219
2392.646484	5020.046875
2391.342773	5050.252930
2390.038086	5009.524902
2388.733398	5088.952148
2387.427734	4965.541016
2386.122070	5226.027344
2384.816406	5080.998047
2383.509766	5225.242676
2382.203125	5227.799805
2380.895508	5132.040527
2379.588867	4993.083984
2378.281250	5247.252441
2376.972656	5173.174316
2375.664063	5203.238281
2374.355469	5197.939453
2373.046875	5121.968262
2371.737305	5310.997070
2370.427734	5417.515625
2369.117188	5265.040527
2367.806641	5279.341309
2366.496094	5281.870117
2365.184570	5137.390137
2363.873047	5300.638672
2362.561523	5207.164551
2361.249023	5305.675781
2359.936523	5323.855957
2358.624023	5367.473145
2357.310547	5436.507813
2355.997070	5456.593750
2354.682617	5361.267090
2353.369141	5357.895996
2352.053711	5334.977051
2350.739258	5380.473633
2349.423828	5466.977051
2348.108398	5477.252930
2346.791992	5428.937012
2345.475586	5470.454102
2344.159180	5568.551270
2342.841797	5619.764648
2341.524414	5507.083984
2340.207031	5593.390137
2338.888672	5574.363770
2337.570313	5580.686523
2336.250977	5783.827148
2334.932617	5587.475586
2333.612305	5716.493652
2332.292969	5843.495117
2330.972656	5657.015625
2329.652344	5731.418457
2328.331055	5739.629395
2327.009766	5666.140625
2325.688477	5771.594238
2324.366211	5723.407715
2323.043945	5854.055664
2321.721680	5819.473145
2320.398438	5748.000488
2319.075195	5890.187988
2317.750977	5828.440918
2316.427734	5922.005859
2315.102539	5887.448242
2313.778320	5913.047363
2312.453125	5923.117188
2311.127930	5973.898438
2309.801758	6018.837402
2308.475586	6023.055176
2307.149414	5951.711426
2305.822266	6037.293457
2304.495117	5979.537109
2303.166992	6049.578125
2301.839844	5945.399414
2300.510742	5980.583984
2299.182617	6106.662109
2297.853516	6014.152344
2296.524414	6012.556152
2295.194336	6206.171387
2293.864258	6019.025391
2292.534180	6191.285645
2291.203125	6305.516113
2289.872070	6240.127441
2288.541016	6157.400879
2287.208984	6109.452148
2285.876953	6298.819336
2284.543945	6316.432617
2283.211914	6359.102051
2281.877930	6336.207520
2280.544922	6492.549316
2279.210938	6461.923828
2277.875977	6319.599121
2276.541992	6410.347656
2275.207031	6522.223633
2273.871094	6426.184570
2272.536133	6345.588379
2271.199219	6438.154785
2269.863281	6463.364258
2268.526367	6590.454590
2267.189453	6644.439453
2265.851563	6473.577637
2264.513672	6517.958496
2263.175781	6554.633301
2261.836914	6527.928223
2260.498047	6558.821289
2259.159180	6560.912109
2257.819336	6630.147461
2256.479492	6691.673340
2255.138672	6611.275879
2253.798828	6841.460938
2252.457031	6785.978516
2251.116211	6843.562988
2249.774414	6782.361816
2248.431641	6874.382813
2247.089844	6778.746094
2245.747070	6926.219238
2244.403320	7054.479004
2243.059570	6744.632324
2241.715820	6949.363770
2240.372070	7031.629395
2239.027344	6907.430664
2237.682617	7020.234863
2236.336914	6913.295898
2234.991211	7005.029785
2233.644531	6917.243164
2232.298828	7144.446777
2230.952148	7176.887207
2229.604492	7010.906250
2228.256836	7033.828125
2226.909180	7152.072266
2225.560547	7125.381348
2224.212891	7094.892090
2222.863281	7289.230469
2221.513672	7245.379883
2220.164063	7412.914551
2218.814453	7256.736816
2217.463867	7287.150879
2216.113281	7203.389160
2214.761719	7260.429199
2213.411133	7279.405762
2212.058594	7304.074707
2210.707031	7347.735352
2209.354492	7290.666992
2208.000977	7516.666992
2206.647461	7421.601074
2205.293945	7366.455078
2203.940430	7482.163574
2202.585938	7451.697754
2201.231445	7550.246582
2199.875977	7451.501465
2198.520508	7441.922363
2197.165039	7362.212891
2195.808594	7553.532715
2194.452148	7496.568848
2193.094727	7490.772461
2191.737305	7644.032227
2190.379883	7717.703125
2189.022461	7738.344727
2187.664063	7685.187500
2186.304688	7792.832520
2184.946289	7879.618652
2183.586914	7841.587402
2182.226563	7754.437500
2180.866211	7846.829590
2179.505859	8027.951172
2178.144531	7908.715332
2176.783203	7993.437988
2175.421875	7961.094727
2174.059570	7843.857422
2172.697266	7881.366699
2171.334961	7866.050293
2169.971680	8027.966797
2168.608398	7910.833984
2167.244141	8083.956543
2165.879883	7976.289551
2164.515625	7991.097656
2163.150391	8192.299805
2161.785156	8176.922363
2160.419922	8201.071289
2159.053711	8157.478516
2157.687500	8217.353516
2156.320313	8230.187500
2154.953125	8169.701172
2153.585938	8423.091797
2152.217773	8238.583008
2150.849609	8384.753906
2149.481445	8324.287109
2148.112305	8357.716797
2146.742188	8546.901367
2145.373047	8375.736328
2144.002930	8564.812500
2142.632813	8412.485352
2141.261719	8543.330078
2139.890625	8426.700195
2138.518555	8418.810547
2137.146484	8467.122070
2135.774414	8429.260742
2134.401367	8659.149414
2133.028320	8548.255859
2131.655273	8588.992188
2130.281250	8551.134766
2128.907227	8689.098633
2127.533203	8759.676758
2126.158203	8774.138672
2124.782227	8775.511719
2123.407227	8868.424805
2122.031250	8774.516602
2120.654297	8798.291992
2119.278320	8885.521484
2117.900391	8814.075195
2116.523438	8931.103516
2115.145508	8952.941406
2113.767578	8926.285156
2112.388672	9020.814453
2111.009766	8893.513672
2109.629883	8881.797852
2108.250000	8888.713867
2106.870117	8916.109375
2105.490234	9178.060547
2104.109375	9034.132813
2102.727539	9063.325195
2101.345703	9157.605469
2099.963867	9117.939453
2098.582031	9245.617188
2097.199219	9328.618164
2095.816406	9301.941406
2094.432617	9275.278320
2093.048828	9163.199219
2091.664063	9387.234375
2090.280273	9466.367188
2088.894531	9302.366211
2087.509766	9387.042969
2086.124023	9364.102539
2084.738281	9335.612305
2083.351563	9433.183594
2081.964844	9345.387695
2080.577148	9537.385742
2079.189453	9432.937500
2077.801758	9576.664063
2076.413086	9527.793945
2075.024414	9623.297852
2073.635742	9624.392578
2072.246094	9562.598633
2070.856445	9593.293945
2069.465820	9703.461914
2068.075195	9704.530273
2066.684570	9790.587891
2065.292969	9745.451172
2063.901367	9800.055664
2062.509766	9991.243164
2061.117188	9826.120117
2059.723633	9950.770508
2058.331055	9824.483398
2056.937500	9812.598633
2055.542969	9784.126953
2054.148438	9956.571289
2052.753906	9955.712891
2051.359375	10080.119141
2049.963867	10025.819336
2048.567383	10157.500977
2047.170898	10051.669922
2045.774414	10048.941406
2044.377930	10000.223633
2042.980469	10131.765625
2041.582031	10088.564453
2040.184570	10028.842773
2038.786133	10149.241211
2037.386719	10284.269531
2035.987305	10220.867188
2034.587891	10229.107422
2033.187500	10272.219727
2031.787109	10361.184570
2030.386719	10466.613281
2028.985352	10460.099609
2027.583984	10316.066406
2026.181641	10547.904297
2024.779297	10413.085938
2023.376953	10307.654297
2021.973633	10588.755859
2020.570313	10294.722656
2019.166016	10515.261719
2017.761719	10580.117188
2016.357422	10584.556641
2014.952148	10616.430664
2013.546875	10776.291992
2012.141602	10674.637695
2010.735352	10801.496094
2009.328125	10725.468750
2007.921875	10592.854492
2006.514648	10958.856445
2005.106445	10985.083008
2003.698242	11270.468750
2002.290039	10962.676758
2000.880859	11065.492188
1999.471680	11255.787109
1998.062500	11167.030273
1996.652344	11253.298828
1995.242188	11073.477539
1993.831055	11358.287109
1992.419922	11178.534180
1991.008789	11426.742188
1989.596680	11259.807617
1988.184570	11344.082031
1986.771484	11288.230469
1985.358398	11283.332031
1983.945313	11578.441406
1982.531250	11513.479492
1981.117188	11364.958008
1979.702148	11436.341797
1978.287109	11520.399414
1976.872070	11440.993164
1975.456055	11514.109375
1974.040039	11730.549805
1972.623047	11627.561523
1971.206055	11822.084961
1969.789063	11652.035156
1968.371094	11926.205078
1966.953125	11828.707031
1965.535156	11885.262695
1964.116211	12113.858398
1962.696289	12047.169922
1961.277344	11973.274414
1959.856445	11837.884766
1958.436523	12048.145508
1957.015625	12037.615234
1955.594727	11925.823242
1954.172852	12068.994141
1952.750977	12107.260742
1951.328125	12033.481445
1949.905273	12207.208984
1948.482422	12351.946289
1947.058594	12350.370117
1945.634766	12263.965820
1944.210938	12403.152344
1942.786133	12425.009766
1941.360352	12398.163086
1939.935547	12605.703125
1938.509766	12519.339844
1937.083008	12416.806641
1935.656250	12492.665039
1934.229492	12613.503906
1932.801758	12550.632813
1931.374023	12673.186523
1929.946289	12707.500000
1928.517578	12704.015625
1927.087891	12639.385742
1925.659180	12668.282227
1924.228516	12697.161133
1922.798828	12752.977539
1921.368164	12828.523438
1919.937500	13022.559570
1918.505859	13135.691406
1917.074219	12862.838867
1915.641602	13092.591797
1914.208984	12861.160156
1912.776367	13207.362305
1911.342773	13115.877930
1909.909180	13248.507813
1908.475586	13239.492188
1907.041016	13386.344727
1905.605469	13212.517578
1904.169922	13389.733398
1902.734375	13475.556641
1901.298828	13502.275391
1899.862305	13443.102539
1898.424805	13409.000977
1896.988281	13410.678711
1895.549805	13678.706055
1894.112305	13623.118164
1892.673828	13719.421875
1891.234375	13574.543945
1889.795898	13686.875977
1888.355469	13927.674805
1886.916016	13759.654297
1885.475586	13763.003906
1884.034180	13798.456055
1882.593750	13958.709961
1881.151367	14042.218750
1879.709961	13911.816406
1878.267578	14039.831055
1876.824219	14012.808594
1875.380859	13987.580078
1873.937500	14183.113281
1872.493164	14116.914063
1871.048828	14235.792969
1869.604492	14304.798828
1868.159180	14163.928711
1866.712891	14382.247070
1865.267578	14412.050781
1863.821289	14454.273438
1862.374023	14304.629883
1860.926758	14336.201172
1859.479492	14413.912109
1858.031250	14615.817383
1856.583008	14382.893555
1855.133789	14614.848633
1853.684570	14713.670898
1852.235352	14651.104492
1850.785156	14772.900391
1849.334961	14793.628906
1847.883789	14897.600586
1846.432617	14982.032227
1844.981445	14767.212891
1843.529297	14895.879883
1842.076172	15020.935547
1840.624023	14862.885742
1839.170898	14975.498047
1837.716797	15266.614258
1836.262695	15267.697266
1834.808594	15183.961914
1833.353516	15098.503906
1831.898438	15376.895508
1830.442383	15275.538086
1828.986328	15311.909180
1827.530273	15429.429688
1826.073242	15377.531250
1824.616211	15493.201172
1823.158203	15432.495117
1821.700195	15592.148438
1820.242188	15734.089844
1818.783203	15775.537109
1817.324219	15579.204102
1815.864258	15678.770508
1814.404297	15818.763672
1812.943359	15863.654297
1811.482422	15887.407227
1810.021484	15849.590820
1808.559570	15790.694336
1807.097656	16071.074219
1805.634766	15989.300781
1804.171875	16111.357422
1802.708984	16189.436523
1801.245117	16351.750000
1799.781250	16038.281250
1798.316406	16402.347656
1796.851563	16404.816406
1795.386719	16307.311523
1793.920898	16511.437500
1792.454102	16405.191406
1790.988281	16444.449219
1789.520508	16427.621094
1788.053711	16536.904297
1786.585938	16630.367188
1785.117188	16687.015625
1783.648438	16491.636719
1782.179688	16667.253906
1780.710938	16697.605469
1779.240234	17039.171875
1777.770508	16842.156250
1776.299805	16802.525391
1774.829102	16747.193359
1773.357422	16719.833984
1771.885742	17099.324219
1770.413086	17071.878906
1768.940430	17211.976563
1767.467773	17358.972656
1765.994141	17223.335938
1764.519531	17239.470703
1763.045898	17565.876953
1761.570313	17459.914063
1760.095703	17362.720703
1758.620117	17451.943359
1757.144531	17640.361328
1755.667969	17478.785156
1754.191406	17630.544922
1752.713867	17733.501953
1751.236328	17853.792969
1749.757813	17850.560547
1748.279297	17838.636719
1746.800781	18076.964844
1745.321289	17919.042969
1743.841797	17743.837891
1742.361328	17955.941406
1740.880859	18251.248047
1739.400391	18159.390625
1737.918945	18220.257813
1736.437500	18183.957031
1734.955078	18444.185547
1733.472656	18151.283203
1731.989258	18437.365234
1730.505859	18548.302734
1729.022461	18756.167969
1727.538086	18473.886719
1726.053711	18634.916016
1724.568359	18833.923828
1723.083008	18821.746094
1721.596680	18773.253906
1720.111328	18857.927734
1718.624023	18805.988281
1717.136719	18814.562500
1715.649414	19033.908203
1714.161133	19006.138672
1712.672852	18793.623047
1711.184570	19313.148438
1709.695313	19029.906250
1708.205078	18843.433594
1706.715820	19093.437500
1705.224609	19098.445313
1703.734375	19182.746094
1702.243164	19082.599609
1700.750977	19284.005859
1699.258789	19385.402344
1697.766602	19374.814453
1696.273438	19684.414063
1694.780273	19615.232422
1693.286133	19611.464844
1691.791992	19960.291016
1690.297852	19868.730469
1688.802734	19816.755859
1687.306641	19919.474609
1685.811523	20071.958984
1684.314453	19925.498047
1682.818359	20060.718750
1681.321289	20247.359375
1679.823242	19956.812500
1678.325195	20215.429688
1676.827148	20051.970703
1675.328125	20403.005859
1673.829102	20239.580078
1672.329102	20477.255859
1670.829102	20281.345703
1669.329102	20217.425781
1667.828125	20179.222656
1666.326172	20517.636719
1664.825195	20689.859375
1663.322266	20586.537109
1661.820313	20626.941406
1660.317383	20694.677734
1658.813477	20738.443359
1657.309570	20946.238281
1655.805664	21094.119141
1654.300781	21055.746094
1652.795898	20937.140625
1651.290039	21124.152344
1649.784180	20986.818359
1648.277344	21112.289063
1646.770508	21033.019531
1645.263672	21105.542969
1643.755859	21212.117188
1642.248047	21315.220703
1640.739258	21281.970703
1639.230469	21124.408203
1637.720703	21264.900391
1636.210938	21638.513672
1634.701172	21845.146484
1633.190430	21439.208984
1631.678711	21577.744141
1630.167969	21534.267578
1628.655273	21716.888672
1627.143555	21688.687500
1625.630859	21781.117188
1624.117188	21837.828125
1622.603516	21891.107422
1621.089844	22019.041016
1619.575195	21773.572266
1618.060547	21948.962891
1616.544922	21815.582031
1615.029297	21892.517578
1613.512695	22438.933594
1611.996094	22332.632813
1610.479492	22429.677734
1608.961914	22570.701172
1607.444336	22803.072266
1605.925781	22486.888672
1604.407227	22555.003906
1602.887695	22907.285156
1601.368164	22770.601563
1599.847656	22667.806641
1598.327148	22991.015625
1596.806641	22580.669922
1595.285156	22569.230469
1593.763672	22819.566406
1592.241211	22833.386719
1590.718750	22899.519531
1589.195313	22950.427734
1587.671875	22933.828125
1586.148438	22692.935547
1584.624023	23032.152344
1583.099609	22951.484375
1581.574219	23130.355469
1580.047852	23150.773438
1578.522461	23169.494141
1576.996094	23056.878906
1575.468750	23317.980469
1573.941406	23375.330078
1572.414063	23240.876953
1570.885742	23585.781250
1569.356445	23557.255859
1567.828125	23774.132813
1566.297852	23515.369141
1564.768555	23678.376953
1563.238281	23653.205078
1561.707031	23634.761719
1560.175781	23738.845703
1558.644531	23787.498047
1557.112305	23658.312500
1555.579102	23663.353516
1554.046875	23673.419922
1552.512695	23943.255859
1550.979492	23591.316406
1549.445313	23772.240234
1547.910156	23876.029297
1546.375000	24014.910156
1544.839844	23962.917969
1543.303711	23956.126953
1541.766602	23895.812500
1540.230469	24211.773438
1538.692383	23989.257813
1537.155273	24194.705078
1535.617188	24461.851563
1534.078125	24433.201172
1532.539063	24501.412109
1531.000000	24260.751953
1529.459961	24369.023438
1527.918945	24387.134766
1526.377930	24313.496094
1524.836914	24658.429688
1523.294922	24333.035156
1521.752930	24646.099609
1520.210938	24799.041016
1518.667969	24562.150391
1517.124023	24833.246094
1515.580078	24651.406250
1514.036133	24795.841797
1512.491211	24815.416016
1510.946289	24666.992188
1509.400391	24979.226563
1507.854492	25063.550781
1506.307617	24943.423828
1504.760742	24933.009766
1503.212891	24920.939453
1501.665039	25202.755859
1500.117188	25047.857422
1498.568359	25110.429688
1497.019531	25390.285156
1495.469727	25203.943359
1493.919922	25238.222656
1492.369141	25816.150391
1490.818359	25565.214844
1489.266602	26121.177734
1487.714844	26072.337891
1486.163086	26391.078125
1484.610352	26951.289063
1483.056641	27244.769531
1481.502930	27652.222656
1479.949219	27684.035156
1478.394531	28320.931641
1476.839844	28124.439453
1475.284180	28271.744141
1473.728516	28123.275391
1472.172852	28178.011719
1470.616211	28239.318359
1469.058594	28156.994141
1467.500977	28445.964844
1465.943359	28469.191406
1464.384766	28494.050781
1462.826172	28540.326172
1461.266602	28390.443359
1459.707031	28553.697266
1458.146484	28431.892578
1456.585938	28534.105469
1455.024414	28308.656250
1453.462891	28009.273438
1451.901367	28144.416016
1450.338867	28157.761719
1448.775391	28103.675781
1447.211914	28046.330078
1445.648438	28202.660156
1444.083984	27987.589844
1442.519531	27876.115234
1440.954102	28166.992188
1439.388672	28300.113281
1437.822266	28424.949219
1436.255859	28633.380859
1434.689453	28351.291016
1433.122070	28441.560547
1431.553711	28661.273438
1429.985352	28649.796875
1428.416992	28880.783203
1426.847656	29322.910156
1425.278320	29047.634766
1423.708008	29094.974609
1422.137695	29497.376953
1420.566406	29649.250000
1418.995117	29694.730469
1417.422852	29947.822266
1415.850586	30014.431641
1414.278320	30213.355469
1412.705078	30154.058594
1411.130859	30560.226563
1409.556641	30298.410156
1407.982422	30572.091797
1406.407227	30617.173828
1404.832031	30435.486328
1403.255859	30307.714844
1401.679688	30493.027344
1400.102539	30701.050781
1398.525391	30640.103516
1396.947266	30818.636719
1395.369141	31381.371094
1393.790039	31531.906250
1392.210938	32029.007813
1390.631836	32369.623047
1389.051758	32827.152344
1387.471680	33518.574219
1385.890625	33990.132813
1384.308594	34415.914063
1382.727539	35291.484375
1381.144531	35784.855469
1379.562500	36154.531250
1377.978516	36368.160156
1376.395508	36248.980469
1374.811523	35888.132813
1373.226563	35308.531250
1371.641602	35199.476563
1370.055664	34476.132813
1368.469727	34396.539063
1366.883789	34211.683594
1365.296875	33973.488281
1363.709961	33620.464844
1362.122070	33439.218750
1360.533203	32979.746094
1358.945313	32958.933594
1357.355469	32718.181641
1355.766602	32776.667969
1354.175781	32558.730469
1352.585938	32489.568359
1350.994141	32690.210938
1349.403320	32499.925781
1347.811523	32708.513672
1346.218750	32970.238281
1344.625977	33393.160156
1343.033203	33520.644531
1341.439453	34162.464844
1339.844727	34215.492188
1338.250000	34397.414063
1336.655273	34619.507813
1335.059570	34498.386719
1333.463867	34071.378906
1331.867188	34277.265625
1330.270508	33708.941406
1328.672852	33774.832031
1327.075195	33443.406250
1325.476563	33477.171875
1323.877930	33149.230469
1322.278320	32770.050781
1320.678711	32747.736328
1319.079102	32532.703125
1317.478516	32796.261719
1315.876953	32403.160156
1314.275391	32369.730469
1312.673828	32443.798828
1311.071289	32351.029297
1309.467773	32136.458984
1307.864258	31915.597656
1306.260742	31909.578125
1304.656250	32054.136719
1303.051758	31892.732422
1301.446289	31968.361328
1299.840820	32051.947266
1298.234375	32103.478516
1296.627930	32562.871094
1295.020508	32599.826172
1293.413086	32889.343750
1291.804688	32809.503906
1290.196289	32942.207031
1288.587891	32576.478516
1286.977539	32440.900391
1285.368164	32110.640625
1283.757813	32171.560547
1282.146484	32013.869141
1280.535156	31867.427734
1278.923828	32326.980469
1277.311523	32376.593750
1275.699219	32062.837891
1274.085938	32627.068359
1272.471680	32311.822266
1270.857422	32321.562500
1269.243164	32382.226563
1267.627930	32399.888672
1266.012695	32477.988281
1264.396484	32295.218750
1262.780273	32223.845703
1261.163086	32448.142578
1259.545898	32333.855469
1257.927734	32065.546875
1256.309570	31694.166016
1254.690430	31819.910156
1253.071289	31867.808594
1251.452148	31972.796875
1249.831055	31333.791016
1248.210938	31860.669922
1246.589844	31764.224609
1244.967773	31762.921875
1243.345703	31585.750000
1241.723633	31592.412109
1240.100586	31475.556641
1238.476563	31235.292969
1236.852539	31359.144531
1235.228516	31217.134766
1233.603516	31592.384766
1231.977539	31285.943359
1230.351563	31053.968750
1228.725586	31130.267578
1227.098633	30952.175781
1225.471680	31014.238281
1223.843750	30550.507813
1222.215820	30543.193359
1220.586914	30412.802734
1218.958008	30135.781250
1217.328125	30204.279297
1215.697266	30066.207031
1214.067383	29984.951172
1212.435547	30233.042969
1210.804688	30167.531250
1209.172852	30399.669922
1207.540039	30132.636719
1205.907227	30284.380859
1204.273438	30520.992188
1202.639648	30397.275391
1201.004883	30523.640625
1199.370117	30505.308594
1197.734375	30578.128906
1196.098633	30328.841797
1194.462891	30478.623047
1192.825195	30377.093750
1191.188477	30219.111328
1189.550781	30254.230469
1187.912109	30552.875000
1186.273438	30501.611328
1184.634766	30832.925781
1182.995117	30906.994141
1181.354492	30907.369141
1179.713867	31203.800781
1178.073242	31136.744141
1176.431641	30953.873047
1174.789063	31041.863281
1173.146484	31422.384766
1171.503906	31419.458984
1169.860352	31566.644531
1168.215820	31582.429688
1166.571289	32029.531250
1164.926758	32054.537109
1163.281250	32793.304688
1161.634766	33097.558594
1159.988281	33203.390625
1158.341797	33938.039063
1156.694336	34642.613281
1155.046875	34949.074219
1153.398438	35612.394531
1151.749023	36465.484375
1150.099609	36565.441406
1148.450195	36398.957031
1146.799805	36123.554688
1145.149414	36058.484375
1143.498047	35532.750000
1141.846680	35517.671875
1140.194336	35373.492188
1138.541016	35761.214844
1136.888672	35769.390625
1135.234375	36086.824219
1133.580078	36912.121094
1131.925781	37671.691406
1130.270508	39193.218750
1128.615234	39976.503906
1126.958984	41498.003906
1125.302734	42756.421875
1123.645508	43700.808594
1121.987305	44612.070313
1120.330078	44791.183594
1118.670898	44953.136719
1117.012695	44636.312500
1115.352539	44135.378906
1113.692383	43315.800781
1112.032227	42665.406250
1110.371094	42592.527344
1108.709961	41778.750000
1107.047852	41508.226563
1105.385742	42287.550781
1103.722656	42190.121094
1102.059570	43453.914063
1100.395508	45271.460938
1098.730469	47364.328125
1097.066406	48911.050781
1095.400391	49867.343750
1093.735352	49533.328125
1092.068359	48402.128906
1090.401367	46583.921875
1088.734375	44575.648438
1087.066406	42738.054688
1085.398438	41295.902344
1083.729492	40335.082031
1082.060547	39134.652344
1080.390625	38204.269531
1078.719727	37122.097656
1077.049805	36749.683594
1075.377930	36262.148438
1073.706055	35908.644531
1072.034180	36074.804688
1070.361328	35819.882813
1068.688477	35793.968750
1067.014648	36022.957031
1065.339844	35528.792969
1063.666016	35479.953125
1061.990234	35345.226563
1060.314453	35863.925781
1058.638672	35371.910156
1056.961914	35769.199219
1055.284180	35600.812500
1053.607422	35519.839844
1051.928711	35063.710938
1050.250000	34884.953125
1048.571289	34262.445313
1046.891602	34100.851563
1045.210938	34211.621094
1043.530273	33829.929688
1041.849609	33784.777344
1040.167969	33736.589844
1038.485352	33809.125000
1036.802734	33829.679688
1035.120117	33921.988281
1033.436523	33652.460938
1031.751953	33647.093750
1030.067383	33264.906250
1028.382813	33296.250000
1026.696289	33048.554688
1025.010742	32811.671875
1023.324219	32559.689453
1021.636719	32527.207031
1019.949219	32371.388672
1018.260742	32147.150391
1016.572266	32370.494141
1014.883789	32548.058594
1013.193359	32135.341797
1011.503906	32233.791016
1009.813477	31857.886719
1008.122070	31690.402344
1006.430664	31747.863281
1004.738281	31937.419922
1003.045898	32207.335938
1001.352539	32165.916016
999.659180	32655.625000
997.964844	32749.101563
996.270508	32668.115234
994.575195	32929.812500
992.878906	32575.992188
991.183594	32382.992188
989.486328	32303.707031
987.789063	32000.349609
986.091797	32058.978516
984.393555	31851.208984
982.695313	31785.775391
980.996094	31841.378906
979.295898	31543.123047
977.595703	31849.685547
975.895508	31577.285156
974.194336	32028.675781
972.492188	32242.681641
970.790039	32500.341797
969.087891	32700.488281
967.384766	32600.234375
965.680664	32314.496094
963.976563	32399.896484
962.271484	32099.302734
960.566406	31818.476563
958.860352	31943.111328
957.154297	31394.380859
955.447266	31320.292969
953.740234	31440.435547
952.032227	31145.152344
950.324219	31436.773438
948.615234	31531.193359
946.906250	31406.037109
945.196289	31229.843750
943.486328	31059.761719
941.775391	31543.236328
940.064453	31430.222656
938.352539	31386.330078
936.639648	31681.656250
934.926758	31519.175781
933.213867	31871.275391
931.500000	31744.814453
929.785156	31483.509766
928.070313	31737.882813
926.355469	31816.812500
924.638672	31683.015625
922.922852	32273.978516
921.206055	32306.263672
919.488281	32435.791016
917.770508	32472.488281
916.051758	32607.863281
914.333008	33048.144531
912.613281	32864.906250
910.893555	33168.871094
909.172852	33335.226563
907.451172	33668.722656
905.730469	33949.769531
904.007813	33760.546875
902.285156	33865.339844
900.562500	34256.433594
898.838867	34286.457031
897.114258	34413.343750
895.389648	34738.343750
893.665039	34717.531250
891.938477	34248.460938
890.212891	34104.226563
888.486328	33693.660156
886.758789	33823.445313
885.031250	33026.453125
883.302734	33079.027344
881.574219	32788.167969
879.844727	32848.203125
878.115234	32801.230469
876.384766	32515.156250
874.653320	32359.910156
872.921875	32397.720703
871.190430	32399.890625
869.458008	32409.472656
867.724609	32390.867188
865.991211	32329.273438
864.257813	32487.068359
862.523438	32413.621094
860.788086	32152.093750
859.052734	32561.525391
857.316406	32517.716797
855.580078	32321.496094
853.842773	32601.781250
852.105469	32373.107422
850.367188	32302.775391
848.627930	32514.806641
846.888672	32621.789063
845.149414	32521.888672
843.409180	32470.777344
841.667969	32728.253906
839.926758	32499.992188
838.185547	32478.429688
836.443359	32804.988281
834.700195	32817.253906
832.957031	33050.632813
831.212891	32601.537109
829.468750	32933.542969
827.723633	33004.652344
825.978516	32583.937500
824.232422	32808.183594
822.485352	32951.355469
820.738281	32845.828125
818.991211	33227.136719
817.243164	33273.011719
815.494141	32897.039063
813.745117	32962.078125
811.995117	32784.710938
810.245117	33209.496094
808.494141	33058.578125
806.743164	32948.835938
804.991211	33241.132813
803.239258	33330.859375
801.486328	33193.261719
799.733398	33274.144531
797.979492	33152.757813
796.224609	33467.972656
794.469727	33176.718750
792.713867	33204.785156
790.958008	33273.808594
789.202148	33764.164063
787.444336	33505.332031
785.687500	33540.558594
783.928711	33600.609375
782.169922	33562.710938
780.411133	33720.593750
778.651367	33878.375000
776.891602	33681.269531
775.130859	33767.437500
773.369141	33968.824219
771.607422	33958.570313
769.844727	34013.941406
768.082031	33959.937500
766.318359	33997.777344
764.554688	34093.867188
762.790039	34221.933594
761.025391	34341.187500
759.259766	34458.906250
757.493164	34361.183594
755.726563	34062.761719
753.959961	34305.511719
752.191406	34430.351563
750.423828	34278.960938
748.655273	34358.679688
746.885742	34413.652344
745.115234	34535.386719
743.345703	34356.546875
741.574219	34266.332031
739.802734	34459.074219
738.031250	34387.730469
736.258789	34555.660156
734.485352	34740.878906
732.711914	34610.089844
730.937500	34890.777344
729.163086	34971.445313
727.387695	34881.230469
725.612305	35048.675781
723.835938	34754.476563
722.058594	35108.437500
720.281250	35184.558594
718.503906	35133.417969
716.725586	35027.390625
714.946289	35055.777344
713.166992	35186.679688
711.386719	35378.136719
709.606445	35312.558594
707.825195	35020.480469
706.042969	35550.777344
704.260742	35343.875000
702.478516	35214.941406
700.695313	35459.332031
698.911133	35108.562500
697.126953	35177.117188
695.341797	35562.390625
693.556641	35384.617188
691.770508	35199.757813
689.983398	35834.960938
688.196289	35555.152344
686.409180	35787.308594
684.621094	35836.792969
682.832031	35608.949219
681.042969	35605.304688
679.252930	35598.789063
677.462891	35966.925781
675.671875	35943.070313
673.879883	36021.082031
672.087891	36038.808594
670.295898	35923.179688
668.502930	36211.804688
666.708984	36113.382813
664.915039	36241.332031
663.120117	36536.742188
661.324219	36647.296875
659.529297	36321.296875
657.732422	36706.527344
655.935547	36701.066406
654.137695	36512.593750
652.339844	36590.085938
650.541992	36694.679688
648.742188	37144.898438
646.942383	37063.601563
645.142578	36940.945313
643.341797	37095.238281
641.540039	37051.109375
639.738281	37377.843750
637.936523	37400.664063
636.133789	37373.574219
634.330078	37289.496094
632.525391	37379.261719
630.720703	37812.183594
628.916016	37564.304688
627.110352	37726.476563
625.303711	37776.136719
623.497070	37713.394531
621.689453	37767.289063
619.881836	38172.257813
618.073242	38191.859375
616.264648	37982.718750
614.455078	38299.183594
612.644531	38058.890625
610.833984	38365.195313
609.022461	38669.882813
607.210938	38547.417969
605.398438	38409.421875
603.585938	38611.738281
601.772461	38650.945313
599.958008	38440.773438
598.143555	38648.539063
596.329102	38662.199219
594.512695	38968.843750
592.696289	38566.367188
590.879883	38500.804688
589.062500	38815.687500
587.245117	38718.976563
585.426758	38728.316406
583.607422	39032.933594
581.788086	38956.000000
579.967773	38783.097656
578.146484	38947.656250
576.325195	39302.613281
574.503906	39469.722656
572.681641	39447.746094
570.858398	39494.863281
569.035156	39873.152344
567.210938	39603.082031
565.386719	39644.457031
563.561523	39474.589844
561.735352	39532.859375
559.909180	39612.195313
558.082031	39427.000000
556.254883	39278.480469
554.426758	39326.875000
552.598633	39386.480469
550.769531	39097.582031
548.939453	39310.316406
547.109375	39056.714844
545.279297	39368.988281
543.447266	39195.507813
541.615234	39483.683594
539.783203	39597.769531
537.950195	39351.453125
536.116211	39482.320313
534.282227	39795.253906
532.447266	39708.777344
530.612305	39898.207031
528.776367	40189.710938
526.940430	40356.476563
525.103516	41158.300781
523.265625	41762.417969
521.427734	42712.906250
519.588867	43098.113281
517.750000	43334.964844
515.910156	42715.371094
514.069336	42677.078125
512.228516	41766.285156
510.386719	41772.957031
508.544922	41546.625000
506.702148	41335.769531
504.859375	41541.933594
503.015625	41386.953125
501.170898	41425.750000
499.326172	41832.273438
497.480469	41890.394531
495.634766	42096.042969
493.788086	42444.906250
491.940430	42378.941406
490.092773	42600.921875
488.244141	42370.867188
486.395508	42446.746094
484.545898	42204.363281
482.696289	42442.769531
480.845703	42110.257813
478.994141	42087.535156
477.142578	42080.085938
475.290039	41963.027344
473.437500	41950.062500
471.583984	41889.953125
469.729492	41986.515625
467.875000	42476.554688
466.019531	42861.000000
464.164063	43403.078125
462.307617	44578.890625
460.451172	45518.683594
458.593750	46171.492188
456.735352	46316.269531
454.876953	46351.714844
453.017578	46109.292969
451.157227	45768.898438
449.296875	45707.761719
447.436523	45011.390625
445.575195	45171.406250
443.712891	45607.351563
441.849609	45965.753906
439.986328	46583.234375
438.123047	47503.679688
436.258789	47810.140625
434.393555	48211.484375
432.528320	47845.253906
430.662109	46837.484375
428.794922	46126.332031
426.927734	45734.917969
425.059570	45222.664063
423.191406	44830.386719
421.322266	44457.593750
419.453125	44104.273438
417.582031	43807.503906
415.711914	44092.015625
413.840820	43993.179688
411.968750	43523.722656
410.095703	43986.457031
408.222656	43827.359375
406.348633	43961.882813
404.474609	43461.453125
402.599609	43872.890625
400.724609	43511.187500
398.848633	43863.437500
396.971680	43473.191406
395.094727	43673.253906
393.216797	43864.972656
391.338867	44577.855469
389.459961	45055.027344
387.580078	46022.785156
385.700195	47610.519531
383.819336	49090.675781
381.937500	50777.546875
380.055664	52269.437500
378.173828	52365.121094
376.291016	51974.859375
374.407227	50927.199219
372.522461	49505.093750
370.637695	48349.753906
368.752930	47372.335938
366.866211	46648.980469
364.980469	46675.312500
363.092773	46444.234375
361.205078	46598.574219
359.316406	46594.937500
357.427734	46720.550781
355.538086	46916.804688
353.648438	47176.839844
351.757813	47245.042969
349.866211	47495.285156
347.974609	47635.332031
346.082031	47409.972656
344.189453	46944.453125
342.294922	46372.003906
340.401367	45970.851563
338.505859	45609.281250
336.611328	45416.058594
334.714844	45313.769531
332.818359	45021.828125
330.920898	45089.042969
329.023438	45316.003906
327.125000	45200.312500
325.225586	44832.957031
323.326172	44526.707031
321.425781	44061.046875
319.525391	43841.750000
317.624023	43694.226563
315.722656	43399.500000
313.819336	43356.207031
311.916992	43063.109375
310.012695	42953.785156
308.108398	43149.523438
306.203125	43242.601563
304.297852	43029.457031
302.391602	42705.875000
300.485352	42150.660156
298.578125	42107.816406
296.669922	41817.140625
294.761719	41527.984375
292.852539	41664.402344
290.942383	41184.367188
289.032227	40907.773438
287.121094	41128.968750
285.209961	40572.898438
283.297852	40400.230469
281.384766	40390.250000
279.471680	40372.210938
277.557617	40218.550781
275.643555	40532.132813
273.728516	40331.542969
271.812500	40084.113281
269.896484	40168.093750
267.979492	40067.000000
266.062500	40314.437500
264.143555	40037.824219
262.225586	40240.902344
260.305664	40648.714844
258.385742	40400.351563
256.465820	40473.304688
254.543945	40531.488281
252.623047	40544.160156
250.700195	40532.753906
248.777344	40514.664063
246.853516	40322.894531
244.929688	40348.949219
243.004883	40341.597656
241.080078	40123.347656
239.153320	40301.542969
237.227539	40012.730469
235.299805	39650.746094
233.372070	39840.906250
231.443359	39897.664063
229.514648	39645.289063
227.584961	39568.878906
225.655273	39517.804688
223.724609	39384.234375
221.792969	39252.070313
219.860352	39150.582031
217.927734	38945.425781
215.995117	38941.128906
214.060547	38890.316406
212.125977	38969.722656
210.191406	38832.593750
208.255859	38946.480469
206.319336	38878.453125
204.382813	39124.925781
202.445313	39140.437500
200.506836	39040.570313
198.568359	38615.992188
196.628906	38782.703125
194.688477	39087.078125
192.748047	38934.359375
190.806641	38984.289063
188.865234	38987.859375
186.922852	39177.980469
184.979492	39272.738281
183.036133	39457.347656
181.091797	39200.339844
179.146484	39544.734375
177.201172	39739.632813
175.254883	39827.433594
173.308594	39896.691406
171.361328	39915.750000
169.413086	39813.414063
167.464844	39686.074219
165.515625	39661.652344
163.565430	39439.527344
161.615234	39038.339844
159.664063	38547.824219
157.712891	38934.621094
155.759766	38693.238281
153.807617	38582.289063
151.853516	38342.472656
149.899414	38730.140625
147.945313	38512.769531
145.989258	38908.007813
144.033203	38933.785156
142.077148	39500.695313
140.120117	39639.179688
138.162109	39479.597656
136.203125	39062.906250
134.244141	38877.359375
132.284180	38887.324219
130.324219	38852.699219
128.363281	39212.578125
126.401367	39565.675781
124.439453	39357.964844
122.476563	39468.550781
120.513672	39753.148438
118.548828	39756.230469
116.583984	39607.562500
114.619141	39390.988281
112.653320	38042.460938
110.686523	36032.218750
108.719727	34227.046875
106.751953	31683.816406
104.783203	28990.748047
102.814453	25381.845703
100.844727	22316.710938
